File: Reports and Data/Tensile testing/TENSILE TEST.is_qtest_Exports/TENSILE TEST_2.csv
Time,Displacement,Force
(s),(mm),(kN)
"0.0000","116.1694","0.1058"
"1.4000","116.6367","0.1078"
"2.8000","117.1034","0.1094"
"4.2000","117.5700","0.1109"
"5.6000","118.0368","0.1123"
"7.0000","118.5033","0.1133"
"8.4000","118.9701","0.1143"
"9.8000","119.4365","0.1150"
"11.2000","119.9033","0.1158"
"12.6000","120.3700","0.1163"
"14.0000","120.8368","0.1167"
"15.4000","121.3033","0.1169"
"16.8000","121.7700","0.1167"
"18.2000","122.2365","0.1159"
"19.6000","122.7035","0.1151"
"21.0000","123.1699","0.1149"
"22.4000","123.6367","0.1148"
"23.8000","124.1033","0.1148"
"25.2000","124.5701","0.1145"
"26.6000","125.0368","0.1143"
"28.0000","125.5033","0.1143"
"29.4000","125.9698","0.1145"
"30.8000","126.4366","0.1147"
"32.2000","126.9030","0.1149"
"33.6000","127.3700","0.1152"
"35.0000","127.8368","0.1156"
"36.4000","128.3034","0.1159"
"37.8000","128.7700","0.1162"
"39.2000","129.2366","0.1162"
"40.6000","129.7032","0.1165"
"42.0000","130.1701","0.1167"
"43.4000","130.6365","0.1170"
"44.8000","131.1033","0.1174"
"46.2000","131.5700","0.1178"
"47.6000","132.0368","0.1181"
"49.0000","132.5033","0.1184"
"50.4000","132.9700","0.1187"
"51.8000","133.4366","0.1190"
"53.2000","133.9034","0.1194"
"54.6000","134.3698","0.1196"
"56.0000","134.8368","0.1199"
"57.4000","135.3034","0.1201"
"58.8000","135.7701","0.1204"
"60.2000","136.2366","0.1206"
"61.6000","136.7033","0.1208"
"63.0000","137.1700","0.1209"
"64.4000","137.6368","0.1213"
"65.8000","138.1032","0.1215"
"67.2000","138.5700","0.1216"
"68.6000","139.0366","0.1218"
"70.0000","139.5034","0.1219"
"71.4000","139.9700","0.1220"
"72.8000","140.4366","0.1220"
"74.2000","140.9033","0.1219"
"75.6000","141.3701","0.1219"
"77.0000","141.8366","0.1217"
"78.4000","142.3033","0.1216"
"79.8000","142.7700","0.1216"
"81.2000","143.2369","0.1215"
"82.6000","143.7033","0.1212"
"84.0000","144.1700","0.1209"
"85.4000","144.6365","0.1206"
"86.8000","145.1034","0.1207"
"88.2000","145.5700","0.1209"
"89.6000","146.0366","0.1211"
"91.0000","146.5033","0.1213"
"92.4000","146.9701","0.1216"
"93.8000","147.4366","0.1219"
"95.2000","147.9033","0.1222"
"96.6000","148.3698","0.1225"
"98.0000","148.8369","0.1228"
"99.4000","149.3033","0.1230"
"100.8000","149.7700","0.1233"
"102.2000","150.2365","0.1235"
"103.6000","150.7036","0.1238"
"105.0000","151.1701","0.1240"
"106.4000","151.6366","0.1243"
"107.8000","152.1033","0.1246"
"109.2000","152.5701","0.1250"
"110.6000","153.0365","0.1253"
"112.0000","153.5033","0.1256"
"113.4000","153.9698","0.1258"
"114.8000","154.4368","0.1260"
"116.2000","154.9033","0.1262"
"117.6000","155.3701","0.1263"
"119.0000","155.8366","0.1264"
"120.4000","156.3034","0.1265"
"121.8000","156.7698","0.1266"
"123.2000","157.2366","0.1268"
"124.6000","157.7033","0.1269"
"126.0000","158.1702","0.1270"
"127.4000","158.6366","0.1271"
"128.8000","159.1034","0.1272"
"130.2000","159.5700","0.1273"
"131.6000","160.0369","0.1272"
"133.0000","160.5032","0.1273"
"134.4000","160.9700","0.1274"
"135.8000","161.4366","0.1275"
"137.2000","161.9034","0.1276"
"138.6000","162.3698","0.1277"
"140.0000","162.8366","0.1278"
"141.4000","163.3032","0.1278"
"142.8000","163.7701","0.1278"
"144.2000","164.2365","0.1274"
"145.6000","164.7033","0.1271"
"147.0000","165.1700","0.1270"
"148.4000","165.6369","0.1270"
"149.8000","166.1033","0.1271"
"151.2000","166.5700","0.1273"
"152.6000","167.0366","0.1274"
"154.0000","167.5036","0.1277"
"155.4000","167.9698","0.1279"
"156.8000","168.4366","0.1282"
"158.2000","168.9033","0.1284"
"159.6000","169.3701","0.1288"
"161.0000","169.8368","0.1290"
"162.4000","170.3033","0.1293"
"163.8000","170.7700","0.1296"
"165.2000","171.2368","0.1299"
"166.6000","171.7033","0.1302"
"168.0000","172.1701","0.1306"
"169.4000","172.6365","0.1308"
"170.8000","173.1036","0.1311"
"172.2000","173.5700","0.1313"
"173.6000","174.0366","0.1315"
"175.0000","174.5033","0.1317"
"176.4000","174.9701","0.1319"
"177.8000","175.4365","0.1320"
"179.2000","175.9033","0.1321"
"180.6000","176.3700","0.1322"
"182.0000","176.8368","0.1323"
"183.4000","177.3033","0.1324"
"184.8000","177.7701","0.1326"
"186.2000","178.2365","0.1327"
"187.6000","178.7034","0.1329"
"189.0000","179.1698","0.1329"
"190.4000","179.6368","0.1329"
"191.8000","180.1032","0.1330"
"193.2000","180.5703","0.1330"
"194.6000","181.0368","0.1332"
"196.0000","181.5033","0.1332"
"197.4000","181.9698","0.1333"
"198.8000","182.4368","0.1334"
"200.2000","182.9033","0.1336"
"201.6000","183.3700","0.1338"
"203.0000","183.8366","0.1342"
"204.4000","184.3036","0.1344"
"205.8000","184.7700","0.1346"
"207.2000","185.2366","0.1350"
"208.6000","185.7033","0.1353"
"210.0000","186.1701","0.1355"
"211.4000","186.6366","0.1358"
"212.8000","187.1033","0.1360"
"214.2000","187.5698","0.1362"
"215.6000","188.0369","0.1364"
"217.0000","188.5034","0.1367"
"218.4000","188.9698","0.1369"
"219.8000","189.4365","0.1371"
"221.2000","189.9036","0.1373"
"222.6000","190.3698","0.1374"
"224.0000","190.8366","0.1375"
"225.4000","191.3033","0.1376"
"226.8000","191.7701","0.1376"
"228.2000","192.2366","0.1377"
"229.6000","192.7034","0.1379"
"231.0000","193.1698","0.1381"
"232.4000","193.6368","0.1384"
"233.8000","194.1032","0.1386"
"235.2000","194.5701","0.1389"
"236.6000","195.0365","0.1392"
"238.0000","195.5034","0.1395"
"239.4000","195.9700","0.1398"
"240.8000","196.4366","0.1401"
"242.2000","196.9033","0.1405"
"243.6000","197.3701","0.1408"
"245.0000","197.8365","0.1411"
"246.4000","198.3032","0.1414"
"247.8000","198.7700","0.1416"
"249.2000","199.2368","0.1418"
"250.6000","199.7032","0.1420"
"252.0000","200.1701","0.1422"
"253.4000","200.6366","0.1424"
"254.8000","201.1034","0.1425"
"256.2000","201.5697","0.1427"
"257.6000","202.0366","0.1429"
"259.0000","202.5032","0.1432"
"260.4000","202.9702","0.1434"
"261.8000","203.4368","0.1436"
"263.2000","203.9034","0.1438"
"264.6000","204.3700","0.1441"
"266.0000","204.8368","0.1442"
"267.4000","205.3033","0.1443"
"268.8000","205.7700","0.1444"
"270.2000","206.2366","0.1445"
"271.6000","206.7034","0.1447"
"273.0000","207.1700","0.1449"
"274.4000","207.6366","0.1450"
"275.8000","208.1033","0.1452"
"277.2000","208.5701","0.1454"
"278.6000","209.0366","0.1456"
"280.0000","209.5034","0.1458"
"281.4000","209.9700","0.1461"
"282.8000","210.4368","0.1463"
"284.2000","210.9033","0.1466"
"285.6000","211.3701","0.1468"
"287.0000","211.8368","0.1470"
"288.4000","212.3035","0.1472"
"289.8000","212.7698","0.1474"
"291.2000","213.2368","0.1477"
"292.6000","213.7033","0.1478"
"294.0000","214.1701","0.1480"
"295.4000","214.6366","0.1481"
"296.8000","215.1033","0.1483"
"298.2000","215.5698","0.1484"
"299.6000","216.0369","0.1487"
"301.0000","216.5033","0.1489"
"302.4000","216.9701","0.1492"
"303.8000","217.4365","0.1494"
"305.2000","217.9034","0.1496"
"306.6000","218.3700","0.1498"
"308.0000","218.8366","0.1500"
"309.4000","219.3033","0.1501"
"310.8000","219.7701","0.1502"
"312.2000","220.2365","0.1504"
"313.6000","220.7032","0.1506"
"315.0000","221.1700","0.1509"
"316.4000","221.6368","0.1511"
"317.8000","222.1034","0.1513"
"319.2000","222.5700","0.1514"
"320.6000","223.0366","0.1515"
"322.0000","223.5034","0.1517"
"323.4000","223.9698","0.1519"
"324.8000","224.4366","0.1521"
"326.2000","224.9033","0.1524"
"327.6000","225.3702","0.1527"
"329.0000","225.8366","0.1530"
"330.4000","226.3033","0.1533"
"331.8000","226.7698","0.1536"
"333.2000","227.2368","0.1538"
"334.6000","227.7033","0.1539"
"336.0000","228.1700","0.1542"
"337.4000","228.6368","0.1544"
"338.8000","229.1034","0.1546"
"340.2000","229.5700","0.1548"
"341.6000","230.0368","0.1550"
"343.0000","230.5033","0.1552"
"344.4000","230.9702","0.1555"
"345.8000","231.4366","0.1558"
"347.2000","231.9033","0.1561"
"348.6000","232.3698","0.1563"
"350.0000","232.8368","0.1566"
"351.4000","233.3033","0.1568"
"352.8000","233.7701","0.1570"
"354.2000","234.2365","0.1572"
"355.6000","234.7036","0.1574"
"357.0000","235.1700","0.1576"
"358.4000","235.6366","0.1578"
"359.8000","236.1034","0.1578"
"361.2000","236.5702","0.1578"
"362.6000","237.0368","0.1579"
"364.0000","237.5033","0.1580"
"365.4000","237.9701","0.1580"
"366.8000","238.4368","0.1579"
"368.2000","238.9033","0.1578"
"369.6000","239.3701","0.1580"
"371.0000","239.8366","0.1583"
"372.4000","240.3034","0.1584"
"373.8000","240.7700","0.1585"
"375.2000","241.2366","0.1587"
"376.6000","241.7032","0.1590"
"378.0000","242.1701","0.1593"
"379.4000","242.6365","0.1596"
"380.8000","243.1033","0.1600"
"382.2000","243.5701","0.1603"
"383.6000","244.0368","0.1605"
"385.0000","244.5034","0.1608"
"386.4000","244.9700","0.1610"
"387.8000","245.4365","0.1611"
"389.2000","245.9034","0.1611"
"390.6000","246.3698","0.1612"
"392.0000","246.8366","0.1612"
"393.4000","247.3033","0.1612"
"394.8000","247.7701","0.1612"
"396.2000","248.2366","0.1611"
"397.6000","248.7034","0.1609"
"399.0000","249.1698","0.1460"
"399.6020","249.3710","0.0775"