File: Reports and Data/Tensile testing/TENSILE TEST.is_qtest_Exports/TENSILE TEST_3.csv
Time,Displacement,Force
(s),(mm),(kN)
"0.0000","0.0000","0.0000"
"0.5000","0.1660","0.0068"
"1.0000","0.3336","0.0139"
"1.5000","0.5008","0.0223"
"2.0000","0.6673","0.0301"
"2.5000","0.8337","0.0373"
"3.0000","1.0004","0.0438"
"3.5000","1.1676","0.0499"
"4.0000","1.3340","0.0553"
"4.5000","1.5004","0.0602"
"5.0000","1.6671","0.0647"
"5.5000","1.8341","0.0687"
"6.0000","2.0008","0.0723"
"6.5000","2.1671","0.0755"
"7.0000","2.3337","0.0783"
"7.5000","2.5008","0.0809"
"8.0000","2.6673","0.0832"
"8.5000","2.8336","0.0851"
"9.0000","3.0004","0.0869"
"9.5000","3.1675","0.0885"
"10.0000","3.3340","0.0899"
"10.5000","3.5001","0.0911"
"11.0000","3.6671","0.0922"
"11.5000","3.8341","0.0932"
"12.0000","4.0008","0.0942"
"12.5000","4.1668","0.0950"
"13.0000","4.3339","0.0957"
"13.5000","4.5008","0.0965"
"14.0000","4.6675","0.0971"
"14.5000","4.8337","0.0978"
"15.0000","5.0004","0.0984"
"15.5000","5.1676","0.0990"
"16.0000","5.3341","0.0996"
"16.5000","5.5004","0.1001"
"17.0000","5.6671","0.1006"
"17.5000","5.8341","0.1012"
"18.0000","6.0008","0.1016"
"18.5000","6.1672","0.1021"
"19.0000","6.3337","0.1025"
"19.5000","6.5009","0.1030"
"20.0000","6.6675","0.1034"
"20.5000","6.8339","0.1038"
"21.0000","7.0004","0.1041"
"21.5000","7.1675","0.1046"
"22.0000","7.3341","0.1050"
"22.5000","7.5004","0.1053"
"23.0000","7.6671","0.1056"
"23.5000","7.8341","0.1060"
"24.0000","8.0007","0.1063"
"24.5000","8.1671","0.1065"
"25.0000","8.3336","0.1066"
"25.5000","8.5009","0.1068"
"26.0000","8.6673","0.1070"
"26.5000","8.8337","0.1073"
"27.0000","9.0004","0.1073"
"27.5000","9.1675","0.1075"
"28.0000","9.3340","0.1077"
"28.5000","9.5004","0.1080"
"29.0000","9.6672","0.1083"
"29.5000","9.8339","0.1086"
"30.0000","10.0008","0.1089"
"30.5000","10.1671","0.1091"
"31.0000","10.3336","0.1094"
"31.5000","10.5009","0.1097"
"32.0000","10.6673","0.1100"
"32.5000","10.8336","0.1101"
"33.0000","11.0004","0.1104"
"33.5000","11.1676","0.1107"
"34.0000","11.3340","0.1110"
"34.5000","11.5004","0.1111"
"35.0000","11.6669","0.1113"
"35.5000","11.8343","0.1116"
"36.0000","12.0007","0.1118"
"36.5000","12.1671","0.1120"
"37.0000","12.3337","0.1122"
"37.5000","12.5008","0.1125"
"38.0000","12.6675","0.1128"
"38.5000","12.8337","0.1130"
"39.0000","13.0003","0.1133"
"39.5000","13.1676","0.1135"
"40.0000","13.3341","0.1138"
"40.5000","13.5003","0.1140"
"41.0000","13.6671","0.1142"
"41.5000","13.8341","0.1144"
"42.0000","14.0007","0.1146"
"42.5000","14.1672","0.1148"
"43.0000","14.3336","0.1151"
"43.5000","14.5009","0.1154"
"44.0000","14.6673","0.1156"
"44.5000","14.8337","0.1158"
"45.0000","15.0004","0.1159"
"45.5000","15.1675","0.1161"
"46.0000","15.3343","0.1164"
"46.5000","15.5001","0.1166"
"47.0000","15.6671","0.1168"
"47.5000","15.8341","0.1171"
"48.0000","16.0007","0.1173"
"48.5000","16.1669","0.1175"
"49.0000","16.3337","0.1177"
"49.5000","16.5008","0.1180"
"50.0000","16.6673","0.1182"
"50.5000","16.8337","0.1184"
"51.0000","17.0004","0.1185"
"51.5000","17.1676","0.1186"
"52.0000","17.3341","0.1189"
"52.5000","17.5004","0.1190"
"53.0000","17.6671","0.1192"
"53.5000","17.8343","0.1195"
"54.0000","18.0008","0.1196"
"54.5000","18.1671","0.1198"
"55.0000","18.3337","0.1200"
"55.5000","18.5009","0.1203"
"56.0000","18.6673","0.1204"
"56.5000","18.8336","0.1205"
"57.0000","19.0005","0.1207"
"57.5000","19.1675","0.1208"
"58.0000","19.3340","0.1210"
"58.5000","19.5004","0.1212"
"59.0000","19.6668","0.1214"
"59.5000","19.8343","0.1216"
"60.0000","20.0007","0.1219"
"60.5000","20.1671","0.1219"
"61.0000","20.3337","0.1221"
"61.5000","20.5008","0.1223"
"62.0000","20.6675","0.1225"
"62.5000","20.8337","0.1225"
"63.0000","21.0004","0.1227"
"63.5000","21.1676","0.1223"
"64.0000","21.3340","0.1225"
"64.5000","21.5004","0.1227"
"65.0000","21.6671","0.1229"
"65.5000","21.8341","0.1228"
"66.0000","22.0008","0.1229"
"66.5000","22.1669","0.1231"
"67.0000","22.3337","0.1233"
"67.5000","22.5009","0.1236"
"68.0000","22.6675","0.1238"
"68.5000","22.8336","0.1240"
"69.0000","23.0004","0.1240"
"69.5000","23.1675","0.1242"
"70.0000","23.3341","0.1244"
"70.5000","23.5004","0.1246"
"71.0000","23.6669","0.1248"
"71.5000","23.8343","0.1250"
"72.0000","24.0007","0.1252"
"72.5000","24.1669","0.1253"
"73.0000","24.3336","0.1254"
"73.5000","24.5007","0.1255"
"74.0000","24.6673","0.1256"
"74.5000","24.8337","0.1257"
"75.0000","25.0004","0.1258"
"75.5000","25.1676","0.1260"
"76.0000","25.3340","0.1260"
"76.5000","25.5004","0.1261"
"77.0000","25.6671","0.1262"
"77.5000","25.8343","0.1264"
"78.0000","26.0008","0.1265"
"78.5000","26.1669","0.1266"
"79.0000","26.3336","0.1268"
"79.5000","26.5009","0.1270"
"80.0000","26.6675","0.1270"
"80.5000","26.8336","0.1271"
"81.0000","27.0004","0.1272"
"81.5000","27.1675","0.1272"
"82.0000","27.3340","0.1272"
"82.5000","27.5004","0.1272"
"83.0000","27.6671","0.1271"
"83.5000","27.8343","0.1272"
"84.0000","28.0007","0.1272"
"84.5000","28.1671","0.1273"
"85.0000","28.3337","0.1273"
"85.5000","28.5008","0.1273"
"86.0000","28.6675","0.1274"
"86.5000","28.8336","0.1273"
"87.0000","29.0003","0.1273"
"87.5000","29.1676","0.1274"
"88.0000","29.3340","0.1273"
"88.5000","29.5004","0.1271"
"89.0000","29.6671","0.1269"
"89.5000","29.8343","0.1268"
"90.0000","30.0007","0.1266"
"90.5000","30.1671","0.1264"
"91.0000","30.3337","0.1262"
"91.5000","30.5009","0.1260"
"92.0000","30.6675","0.1257"
"92.5000","30.8337","0.1254"
"93.0000","31.0004","0.1250"
"93.5000","31.1675","0.1245"
"94.0000","31.3341","0.1238"
"94.5000","31.5004","0.1229"
"95.0000","31.6669","0.1218"
"95.5000","31.8341","0.1209"
"96.0000","32.0007","0.1203"
"96.5000","32.1671","0.1198"
"97.0000","32.3337","0.1193"
"97.5000","32.5007","0.1188"
"98.0000","32.6673","0.1184"
"98.5000","32.8337","0.1178"
"99.0000","33.0003","0.1170"
"99.5000","33.1676","0.1163"
"100.0000","33.3340","0.1158"
"100.5000","33.5004","0.1155"
"101.0000","33.6671","0.1153"
"101.5000","33.8341","0.1151"
"102.0000","34.0008","0.1149"
"102.5000","34.1669","0.1148"
"103.0000","34.3337","0.1149"
"103.5000","34.5009","0.1150"
"104.0000","34.6673","0.1151"
"104.5000","34.8336","0.1153"
"105.0000","35.0003","0.1153"
"105.5000","35.1676","0.1155"
"106.0000","35.3341","0.1156"
"106.5000","35.5004","0.1158"
"107.0000","35.6671","0.1160"
"107.5000","35.8343","0.1164"
"108.0000","36.0007","0.1166"
"108.5000","36.1671","0.1170"
"109.0000","36.3337","0.1174"
"109.5000","36.5008","0.1177"
"110.0000","36.6675","0.1180"
"110.5000","36.8337","0.1182"
"111.0000","37.0004","0.1183"
"111.5000","37.1676","0.1186"
"112.0000","37.3341","0.1188"
"112.5000","37.5003","0.1191"
"113.0000","37.6671","0.1194"
"113.5000","37.8341","0.1197"
"114.0000","38.0007","0.1200"
"114.5000","38.1672","0.1203"
"115.0000","38.3336","0.1206"
"115.5000","38.5009","0.1207"
"116.0000","38.6673","0.1144"
"116.5000","38.8337","0.1148"
"117.0000","39.0004","0.1153"
"117.5000","39.1673","0.1159"
"118.0000","39.3341","0.1164"
"118.5000","39.5003","0.1169"
"119.0000","39.6669","0.1173"
"119.5000","39.8341","0.1177"
"120.0000","40.0007","0.1181"
"120.5000","40.1671","0.1184"
"121.0000","40.3336","0.1186"
"121.5000","40.5008","0.1189"
"122.0000","40.6673","0.1192"
"122.5000","40.8337","0.1193"
"123.0000","41.0004","0.1194"
"123.5000","41.1675","0.1195"
"124.0000","41.3341","0.1194"
"124.5000","41.5004","0.1194"
"125.0000","41.6671","0.1195"
"125.5000","41.8340","0.1195"
"126.0000","42.0008","0.1196"
"126.5000","42.1671","0.1196"
"127.0000","42.3336","0.1194"
"127.5000","42.5009","0.1192"
"128.0000","42.6675","0.1189"
"128.5000","42.8336","0.1176"
"129.0000","43.0004","0.1169"
"129.5000","43.1676","0.1165"
"130.0000","43.3340","0.1161"
"130.5000","43.5004","0.1153"
"131.0000","43.6671","0.1147"
"131.5000","43.8343","0.1142"
"132.0000","44.0005","0.1138"
"132.5000","44.1671","0.1134"
"133.0000","44.3337","0.1132"
"133.5000","44.5008","0.1130"
"134.0000","44.6675","0.1129"
"134.5000","44.8337","0.1127"
"135.0000","45.0003","0.1121"
"135.5000","45.1676","0.1115"
"136.0000","45.3340","0.1107"
"136.5000","45.5003","0.1099"
"137.0000","45.6671","0.1089"
"137.5000","45.8343","0.1080"
"138.0000","46.0008","0.1074"
"138.5000","46.1671","0.1070"
"139.0000","46.3337","0.1068"
"139.5000","46.5009","0.1061"
"140.0000","46.6673","0.1052"
"140.5000","46.8336","0.1044"
"141.0000","47.0004","0.1034"
"141.5000","47.1675","0.1025"
"142.0000","47.3341","0.1011"
"142.5000","47.5004","0.0896"
"143.0000","47.6671","0.0832"
"143.1140","47.7059","0.0467"