File: Reports and Data/Tensile testing/TENSILE TEST.is_qtest_Exports/TENSILE TEST_1.csv
Time,Displacement,Force
(s),(mm),(kN)
"0.0000","0.0000","0.0000"
"4.7000","0.3920","0.0021"
"9.4000","0.7837","0.0042"
"14.1000","1.1755","0.0063"
"18.8000","1.5669","0.0083"
"23.5000","1.9587","0.0103"
"28.2000","2.3500","0.0122"
"32.9000","2.7417","0.0141"
"37.6000","3.1333","0.0159"
"42.3000","3.5251","0.0176"
"47.0000","3.9168","0.0193"
"51.7000","4.3083","0.0210"
"56.4000","4.7000","0.0226"
"61.1000","5.0917","0.0241"
"65.8000","5.4836","0.0257"
"70.5000","5.8753","0.0271"
"75.2000","6.2668","0.0286"
"79.9000","6.6587","0.0299"
"84.6000","7.0505","0.0313"
"89.3000","7.4421","0.0326"
"94.0000","7.8335","0.0339"
"98.7000","8.2251","0.0351"
"103.4000","8.6168","0.0363"
"108.1000","9.0084","0.0375"
"112.8000","9.4000","0.0387"
"117.5000","9.7915","0.0398"
"122.2000","10.1833","0.0409"
"126.9000","10.5751","0.0419"
"131.6000","10.9668","0.0430"
"136.3000","11.3584","0.0440"
"141.0000","11.7500","0.0450"
"145.7000","12.1420","0.0459"
"150.4000","12.5337","0.0468"
"155.1000","12.9253","0.0477"
"159.8000","13.3171","0.0486"
"164.5000","13.7087","0.0495"
"169.2000","14.1004","0.0503"
"173.9000","14.4919","0.0511"
"178.6000","14.8835","0.0519"
"183.3000","15.2749","0.0526"
"188.0000","15.6665","0.0533"
"192.7000","16.0584","0.0541"
"197.4000","16.4500","0.0548"
"202.1000","16.8417","0.0555"
"206.8000","17.2333","0.0562"
"211.5000","17.6251","0.0568"
"216.2000","18.0169","0.0574"
"220.9000","18.4087","0.0580"
"225.6000","18.8004","0.0586"
"230.3000","19.1920","0.0592"
"235.0000","19.5839","0.0597"
"239.7000","19.9755","0.0602"
"244.4000","20.3669","0.0608"
"249.1000","20.7585","0.0613"
"253.8000","21.1501","0.0618"
"258.5000","21.5419","0.0623"
"263.2000","21.9332","0.0627"
"267.9000","22.3249","0.0632"
"272.6000","22.7165","0.0637"
"277.3000","23.1085","0.0642"
"282.0000","23.5003","0.0646"
"286.7000","23.8917","0.0651"
"291.4000","24.2835","0.0655"
"296.1000","24.6752","0.0659"
"300.8000","25.0672","0.0663"
"305.5000","25.4587","0.0667"
"310.2000","25.8504","0.0672"
"314.9000","26.2421","0.0676"
"319.6000","26.6335","0.0679"
"324.3000","27.0253","0.0683"
"329.0000","27.4168","0.0687"
"333.7000","27.8083","0.0691"
"338.4000","28.2000","0.0694"
"343.1000","28.5917","0.0697"
"347.8000","28.9835","0.0701"
"352.5000","29.3749","0.0704"
"357.2000","29.7667","0.0708"
"361.9000","30.1584","0.0711"
"366.6000","30.5503","0.0715"
"371.3000","30.9420","0.0718"
"376.0000","31.3336","0.0721"
"380.7000","31.7253","0.0724"
"385.4000","32.1172","0.0727"
"390.1000","32.5088","0.0730"
"394.8000","32.9003","0.0733"
"399.5000","33.2919","0.0736"
"404.2000","33.6836","0.0738"
"408.9000","34.0751","0.0741"
"413.6000","34.4667","0.0744"
"418.3000","34.8581","0.0747"
"423.0000","35.2499","0.0749"
"427.7000","35.6416","0.0752"
"432.4000","36.0335","0.0754"
"437.1000","36.4251","0.0757"
"441.8000","36.8167","0.0759"
"446.5000","37.2085","0.0762"
"451.2000","37.6005","0.0764"
"455.9000","37.9921","0.0766"
"460.6000","38.3837","0.0769"
"465.3000","38.7753","0.0771"
"470.0000","39.1671","0.0774"
"474.7000","39.5585","0.0776"
"479.4000","39.9501","0.0778"
"484.1000","40.3416","0.0780"
"488.8000","40.7333","0.0783"
"493.5000","41.1252","0.0785"
"498.2000","41.5167","0.0787"
"502.9000","41.9084","0.0789"
"507.6000","42.3000","0.0791"
"512.3000","42.6917","0.0793"
"517.0000","43.0837","0.0795"
"521.7000","43.4753","0.0797"
"526.4000","43.8671","0.0799"
"531.1000","44.2585","0.0801"
"535.8000","44.6507","0.0802"
"540.5000","45.0420","0.0804"
"545.2000","45.4336","0.0806"
"549.9000","45.8253","0.0809"
"554.6000","46.2167","0.0811"
"559.3000","46.6085","0.0813"
"564.0000","47.0000","0.0815"
"568.7000","47.3916","0.0817"
"573.4000","47.7831","0.0819"
"578.1000","48.1752","0.0821"
"582.8000","48.5669","0.0823"
"587.5000","48.9584","0.0824"
"592.2000","49.3501","0.0826"
"596.9000","49.7420","0.0828"
"601.6000","50.1339","0.0829"
"606.3000","50.5253","0.0831"
"611.0000","50.9171","0.0833"
"615.7000","51.3088","0.0835"
"620.4000","51.7003","0.0836"
"625.1000","52.0921","0.0838"
"629.8000","52.4835","0.0840"
"634.5000","52.8749","0.0842"
"639.2000","53.2667","0.0843"
"643.9000","53.6583","0.0846"
"648.6000","54.0501","0.0847"
"653.3000","54.4416","0.0848"
"658.0000","54.8333","0.0850"
"662.7000","55.2251","0.0852"
"667.4000","55.6171","0.0853"
"672.1000","56.0087","0.0855"
"676.8000","56.4003","0.0857"
"681.5000","56.7920","0.0859"
"686.2000","57.1839","0.0860"
"690.9000","57.5755","0.0862"
"695.6000","57.9669","0.0864"
"700.3000","58.3585","0.0865"
"705.0000","58.7501","0.0867"
"709.7000","59.1417","0.0868"
"714.4000","59.5333","0.0869"
"719.1000","59.9248","0.0871"
"723.8000","60.3167","0.0872"
"728.5000","60.7084","0.0874"
"733.2000","61.1003","0.0876"
"737.9000","61.4917","0.0877"
"742.6000","61.8835","0.0878"
"747.3000","62.2753","0.0880"
"752.0000","62.6671","0.0881"
"756.7000","63.0588","0.0883"
"761.4000","63.4504","0.0885"
"766.1000","63.8420","0.0887"
"770.8000","64.2336","0.0888"
"775.5000","64.6253","0.0890"
"780.2000","65.0168","0.0892"
"784.9000","65.4082","0.0893"
"789.6000","65.7999","0.0895"
"794.3000","66.1918","0.0896"
"799.0000","66.5833","0.0898"
"803.7000","66.9751","0.0899"
"808.4000","67.3667","0.0901"
"813.1000","67.7584","0.0903"
"817.8000","68.1503","0.0904"
"822.5000","68.5420","0.0905"
"827.2000","68.9337","0.0907"
"831.9000","69.3253","0.0908"
"836.6000","69.7172","0.0910"
"841.3000","70.1088","0.0911"
"846.0000","70.5004","0.0913"
"850.7000","70.8919","0.0914"
"855.4000","71.2835","0.0916"
"860.1000","71.6753","0.0917"
"864.8000","72.0665","0.0918"
"869.5000","72.4583","0.0919"
"874.2000","72.8499","0.0920"
"878.9000","73.2419","0.0922"
"883.6000","73.6335","0.0923"
"888.3000","74.0249","0.0924"
"893.0000","74.4166","0.0926"
"897.7000","74.8087","0.0927"
"902.4000","75.2005","0.0928"
"907.1000","75.5920","0.0929"
"911.8000","75.9837","0.0930"
"916.5000","76.3755","0.0930"
"921.2000","76.7669","0.0931"
"925.9000","77.1587","0.0932"
"930.6000","77.5500","0.0933"
"935.3000","77.9417","0.0934"
"940.0000","78.3333","0.0936"
"944.7000","78.7251","0.0937"
"949.4000","79.1168","0.0938"
"954.1000","79.5084","0.0940"
"958.8000","79.9000","0.0941"
"963.5000","80.2917","0.0944"
"968.2000","80.6836","0.0945"
"972.9000","81.0753","0.0947"
"977.6000","81.4669","0.0949"
"982.3000","81.8587","0.0950"
"987.0000","82.2505","0.0951"
"991.7000","82.6421","0.0952"
"996.4000","83.0336","0.0954"
"1001.1","83.4250","0.0955"
"1005.8","83.8168","0.0957"
"1010.5","84.2085","0.0958"
"1015.2","84.6000","0.0959"
"1019.9","84.9915","0.0961"
"1024.6","85.3833","0.0962"
"1029.3","85.7751","0.0963"
"1034","86.1668","0.0965"
"1038.7","86.5583","0.0966"
"1043.4","86.9500","0.0967"
"1048.1","87.3419","0.0969"
"1052.8","87.7338","0.0970"
"1057.5","88.1255","0.0971"
"1062.2","88.5171","0.0973"
"1066.9","88.9087","0.0974"
"1071.6","89.3003","0.0976"
"1076.3","89.6919","0.0977"
"1081","90.0833","0.0978"
"1085.7","90.4749","0.0979"
"1090.4","90.8667","0.0981"
"1095.1","91.2585","0.0983"
"1099.8","91.6500","0.0984"
"1104.5","92.0417","0.0986"
"1109.2","92.4333","0.0987"
"1113.9","92.8251","0.0988"
"1118.6","93.2169","0.0990"
"1123.3","93.6087","0.0992"
"1128","94.0003","0.0993"
"1132.7","94.3920","0.0994"
"1137.4","94.7840","0.0996"
"1142.1","95.1753","0.0998"
"1146.8","95.5671","0.1000"
"1151.5","95.9585","0.1001"
"1156.2","96.3501","0.1003"
"1160.9","96.7419","0.1005"
"1165.6","97.1332","0.1007"
"1170.3","97.5251","0.1009"
"1175","97.9165","0.1010"
"1179.7","98.3085","0.1012"
"1184.4","98.7003","0.1013"
"1189.1","99.0917","0.1015"
"1193.8","99.4835","0.1016"
"1198.5","99.8752","0.1018"
"1203.2","100.2672","0.1019"
"1207.9","100.6587","0.1021"
"1212.6","101.0504","0.1022"
"1217.3","101.4421","0.1024"
"1222","101.8336","0.1025"
"1226.7","102.2255","0.1027"
"1231.4","102.6168","0.1028"
"1236.1","103.0083","0.1029"
"1240.8","103.4000","0.1030"
"1245.5","103.7917","0.1033"
"1250.2","104.1834","0.1034"
"1254.9","104.5749","0.1035"
"1259.6","104.9667","0.1037"
"1264.3","105.3584","0.1038"
"1269","105.7503","0.1039"
"1273.7","106.1420","0.1040"
"1278.4","106.5336","0.1042"
"1283.1","106.9253","0.1043"
"1287.8","107.3172","0.1045"
"1292.5","107.7088","0.1046"
"1297.2","108.1003","0.1048"
"1301.9","108.4919","0.1050"
"1306.6","108.8835","0.1052"
"1311.3","109.2750","0.1054"
"1316","109.6668","0.1056"
"1320.7","110.0581","0.1058"
"1325.4","110.4500","0.1059"
"1330.1","110.8417","0.1061"
"1334.8","111.2336","0.1063"
"1339.5","111.6252","0.1064"
"1344.2","112.0168","0.1065"
"1348.9","112.4087","0.1067"
"1353.6","112.8005","0.1068"
"1358.3","113.1921","0.1069"
"1363","113.5837","0.1071"
"1367.7","113.9753","0.1072"
"1372.4","114.3669","0.1073"
"1377.1","114.7587","0.1074"
"1381.8","115.1501","0.1075"
"1386.5","115.5416","0.1076"
"1391.2","115.9332","0.1078"
"1393.99","116.1656","0.1079"